# Dihedral Angle (Degree),  Occurrence1,  Occurrence2
1.000000000,  74.79378993,  74.72592922
3.000000000,  75.09270228,  74.62516287
5.000000000,  74.74457624,  74.48365334
7.000000000,  75.18637226,  74.99030638
9.000000000,  75.32795023,  74.62487806
11.00000000,  74.92369144,  75.45509491
13.00000000,  76.46220013,  75.53137266
15.00000000,  77.04595993,  75.53700687
17.00000000,  76.77534013,  76.61653350
19.00000000,  78.12631082,  77.56580751
21.00000000,  80.14767782,  79.01008776
23.00000000,  80.97336045,  80.74378771
25.00000000,  83.01431979,  81.61551178
27.00000000,  84.63511552,  83.83715336
29.00000000,  86.83354734,  86.28742993
31.00000000,  89.71227143,  88.61973758
33.00000000,  91.75375117,  91.59280243
35.00000000,  95.21968477,  93.42316202
37.00000000,  98.27353108,  96.03707329
39.00000000,  100.5844108,  99.39639122
41.00000000,  104.8660722,  103.1915850
43.00000000,  106.9851223,  105.4269243
45.00000000,  110.5322119,  108.4292511
47.00000000,  113.2527061,  113.4854564
49.00000000,  115.8173687,  115.7597143
51.00000000,  117.9485963,  118.0638056
53.00000000,  120.1414868,  120.2688394
55.00000000,  121.4014121,  122.6008630
57.00000000,  122.8399281,  124.9221222
59.00000000,  122.9289167,  124.4141990
61.00000000,  122.9378026,  125.7321962
63.00000000,  122.9541977,  122.8520842
65.00000000,  121.1609131,  122.0054426
67.00000000,  118.0309083,  120.3266170
69.00000000,  116.0977503,  118.0972718
71.00000000,  112.4665258,  114.0154932
73.00000000,  108.9325589,  109.3292877
75.00000000,  105.0844500,  105.7989710
77.00000000,  99.42535247,  101.3569937
79.00000000,  95.85083342,  97.56468888
81.00000000,  91.06753111,  92.40355405
83.00000000,  87.17864675,  88.68652158
85.00000000,  83.65084423,  85.49789105
87.00000000,  81.63810189,  83.08753592
89.00000000,  79.52294469,  80.86097933
91.00000000,  78.15819404,  79.92560033
93.00000000,  78.15041740,  79.93869518
95.00000000,  79.09394476,  80.82004441
97.00000000,  80.49547236,  82.93329081
99.00000000,  84.98808541,  86.21914881
101.0000000,  87.99277054,  90.65360610
103.0000000,  93.06692363,  95.36665620
105.0000000,  98.85528711,  101.3060441
107.0000000,  105.7767149,  107.1614198
109.0000000,  112.4193192,  113.8653729
111.0000000,  118.2133449,  119.7703604
113.0000000,  123.7794101,  124.4571542
115.0000000,  128.0113473,  130.0010771
117.0000000,  131.5948909,  133.5366953
119.0000000,  134.5450189,  134.9203958
121.0000000,  135.7033990,  136.1767538
123.0000000,  133.9066775,  135.5080861
125.0000000,  132.9839305,  133.6678520
127.0000000,  131.1008135,  129.9270129
129.0000000,  126.5990342,  124.7126700
131.0000000,  122.5742946,  120.0892406
133.0000000,  117.8713919,  115.2334952
135.0000000,  112.7292837,  109.8606808
137.0000000,  106.4993038,  105.2063640
139.0000000,  102.7969017,  99.77785115
141.0000000,  98.90469924,  96.62484186
143.0000000,  94.42921216,  92.49399922
145.0000000,  90.49293743,  88.74016957
147.0000000,  87.97861603,  86.59951750
149.0000000,  85.61024555,  85.43157812
151.0000000,  85.46689727,  84.09754706
153.0000000,  85.21530331,  84.01809460
155.0000000,  84.98445303,  83.76039464
157.0000000,  87.39124758,  85.91588448
159.0000000,  88.42751921,  88.44691936
161.0000000,  91.11347257,  89.97884405
163.0000000,  93.61894310,  93.55808191
165.0000000,  96.05860199,  96.77206695
167.0000000,  99.46128600,  99.69472977
169.0000000,  102.8219307,  103.2846239
171.0000000,  105.8974562,  105.6869368
173.0000000,  107.6391128,  107.2446881
175.0000000,  110.3769704,  109.1853833
177.0000000,  110.2138732,  110.9672872
179.0000000,  112.2270276,  112.6154685
181.0000000,  112.2741985,  111.9262626
183.0000000,  111.3719447,  110.6340447
185.0000000,  109.5420197,  108.4073725
187.0000000,  107.4332666,  107.1081811
189.0000000,  105.1214761,  104.4312136
191.0000000,  102.4724369,  101.9554289
193.0000000,  100.1978257,  99.06784692
195.0000000,  96.84803806,  95.67834238
197.0000000,  93.23709273,  92.45012831
199.0000000,  90.48643958,  90.19005940
201.0000000,  88.04187688,  87.12694006
203.0000000,  85.76780574,  85.49855078
205.0000000,  83.93293359,  83.77950859
207.0000000,  84.50403870,  83.33183513
209.0000000,  84.60617623,  83.66217033
211.0000000,  86.80479901,  84.60559618
213.0000000,  87.75425905,  86.96252545
215.0000000,  89.84859451,  90.07005539
217.0000000,  93.41841106,  93.55080566
219.0000000,  96.74238248,  96.45203445
221.0000000,  101.2413228,  100.6103490
223.0000000,  106.2376557,  105.7904241
225.0000000,  111.1370835,  110.2959079
227.0000000,  117.1777477,  114.9129309
229.0000000,  123.1935024,  121.4747454
231.0000000,  126.8930674,  126.1236512
233.0000000,  129.5123146,  130.2129330
235.0000000,  133.6606311,  132.8147262
237.0000000,  136.5004023,  135.9108866
239.0000000,  136.8602741,  136.7008877
241.0000000,  137.6215399,  135.4820511
243.0000000,  133.4038132,  133.3098969
245.0000000,  129.8077555,  130.6421902
247.0000000,  124.4053510,  125.8679671
249.0000000,  119.2392462,  122.1159926
251.0000000,  114.1920034,  115.9813400
253.0000000,  108.7239342,  109.2843038
255.0000000,  101.2689140,  102.8981943
257.0000000,  96.43010041,  96.31339095
259.0000000,  91.45093259,  91.68737622
261.0000000,  86.25869367,  86.94201783
263.0000000,  83.59570913,  83.01914904
265.0000000,  80.53937315,  80.28091214
267.0000000,  79.48767534,  79.21010589
269.0000000,  79.66720197,  79.33255706
271.0000000,  80.35059740,  80.19472581
273.0000000,  81.39605765,  80.50153711
275.0000000,  83.18517181,  83.90476655
277.0000000,  87.21333402,  87.21068247
279.0000000,  90.04681100,  90.52469752
281.0000000,  94.17000008,  94.83491985
283.0000000,  98.64839167,  98.68318999
285.0000000,  102.1203822,  103.3162327
287.0000000,  106.0696319,  106.5736543
289.0000000,  109.4151906,  111.5987066
291.0000000,  114.0084214,  113.4960932
293.0000000,  117.2294491,  117.1305292
295.0000000,  118.3022209,  118.0205160
297.0000000,  119.2809480,  119.3462516
299.0000000,  119.4305297,  120.9966260
301.0000000,  120.1032165,  121.9420653
303.0000000,  119.4223354,  120.2593720
305.0000000,  119.1663842,  119.0004550
307.0000000,  116.6282154,  117.0096432
309.0000000,  114.7321041,  115.8015091
311.0000000,  112.4716487,  112.1212401
313.0000000,  108.6226249,  108.5586522
315.0000000,  105.6435895,  106.0235484
317.0000000,  103.0564978,  103.2653749
319.0000000,  100.8839512,  99.69948285
321.0000000,  97.10246008,  96.88324124
323.0000000,  93.93508182,  95.17967488
325.0000000,  92.46173870,  92.48540489
327.0000000,  90.66682105,  90.66652880
329.0000000,  87.75524056,  87.87359028
331.0000000,  85.73745283,  85.38160805
333.0000000,  83.65029124,  83.63944458
335.0000000,  81.31312141,  82.14524258
337.0000000,  79.63191017,  80.42010199
339.0000000,  78.91691394,  79.19984374
341.0000000,  78.41637014,  78.15966119
343.0000000,  77.87396897,  76.99611371
345.0000000,  76.92523152,  76.39336687
347.0000000,  75.33077482,  75.87093552
349.0000000,  75.63001887,  75.01352057
351.0000000,  75.53338631,  75.39751870
353.0000000,  74.79229172,  75.43305520
355.0000000,  74.73916859,  74.00454575
357.0000000,  75.47963887,  74.36627521
359.0000000,  75.02242939,  75.32226945
