# Dihedral Angle (Degree);  Occurrence
0.5000000000;  0.1790601390
1.500000000;  0.2216536562
2.500000000;  0.2207575010
3.500000000;  0.1446115412
4.500000000;  0.2790386030
5.500000000;  0.2072887455
6.500000000;  0.1696433759
7.500000000;  0.2063553045
8.500000000;  0.2473528231
9.500000000;  0.2666038855
10.50000000;  0.2826750439
11.50000000;  0.3407212479
12.50000000;  0.4495379442
13.50000000;  0.4388848286
14.50000000;  0.5352828684
15.50000000;  0.6663379536
16.50000000;  0.6669788168
17.50000000;  0.8476653027
18.50000000;  0.9444259298
19.50000000;  1.089730278
20.50000000;  1.236507459
21.50000000;  1.486035959
22.50000000;  1.857124142
23.50000000;  2.058207010
24.50000000;  2.981909592
25.50000000;  3.180727861
26.50000000;  3.859295055
27.50000000;  4.732567701
28.50000000;  5.650949604
29.50000000;  6.884834125
30.50000000;  8.264591439
31.50000000;  10.11012903
32.50000000;  11.68744278
33.50000000;  14.94719906
34.50000000;  16.93795499
35.50000000;  20.50160681
36.50000000;  24.04832912
37.50000000;  28.92130391
38.50000000;  34.88625326
39.50000000;  40.43062777
40.50000000;  48.42007332
41.50000000;  57.98155177
42.50000000;  68.12232399
43.50000000;  80.27453716
44.50000000;  93.61525609
45.50000000;  107.8554358
46.50000000;  123.7723802
47.50000000;  142.2022113
48.50000000;  161.5337388
49.50000000;  182.1433380
50.50000000;  206.9438451
51.50000000;  232.4918993
52.50000000;  258.7846705
53.50000000;  286.3566351
54.50000000;  318.3127529
55.50000000;  343.7063864
56.50000000;  375.3910182
57.50000000;  403.2309578
58.50000000;  430.9913557
59.50000000;  457.9561967
60.50000000;  480.9526940
61.50000000;  503.5783502
62.50000000;  521.6506864
63.50000000;  538.3939664
64.50000000;  550.9134080
65.50000000;  561.2532334
66.50000000;  565.8779620
67.50000000;  566.0230696
68.50000000;  560.6716629
69.50000000;  551.5211808
70.50000000;  538.1553442
71.50000000;  523.4321575
72.50000000;  507.1170566
73.50000000;  483.8359008
74.50000000;  457.4680668
75.50000000;  432.3644605
76.50000000;  404.0719943
77.50000000;  376.6131289
78.50000000;  349.0856150
79.50000000;  318.5105894
80.50000000;  288.5963135
81.50000000;  263.3242966
82.50000000;  237.6429880
83.50000000;  212.9956833
84.50000000;  189.8462735
85.50000000;  167.9091430
86.50000000;  147.1597241
87.50000000;  129.3364281
88.50000000;  114.0737277
89.50000000;  99.74081276
90.50000000;  85.62878239
91.50000000;  73.13597372
92.50000000;  63.42990301
93.50000000;  54.93976109
94.50000000;  47.33703666
95.50000000;  39.59948914
96.50000000;  33.56442321
97.50000000;  28.90630865
98.50000000;  25.00802271
99.50000000;  20.97376978
100.5000000;  18.09756956
101.5000000;  15.27694623
102.5000000;  13.32500137
103.5000000;  11.66690857
104.5000000;  9.860315278
105.5000000;  8.231673330
106.5000000;  7.206279418
107.5000000;  6.189986480
108.5000000;  5.382746841
109.5000000;  4.899010970
110.5000000;  4.106969698
111.5000000;  3.675001660
112.5000000;  3.065349627
113.5000000;  3.119211435
114.5000000;  2.413011767
115.5000000;  2.257352042
116.5000000;  2.011690023
117.5000000;  1.765735343
118.5000000;  1.622035809
119.5000000;  1.551510961
120.5000000;  1.429425018
121.5000000;  1.415882136
122.5000000;  1.290607245
123.5000000;  1.222886259
124.5000000;  1.174409158
125.5000000;  1.261864271
126.5000000;  1.156156392
127.5000000;  1.135207082
128.5000000;  1.024671437
129.5000000;  1.067216717
130.5000000;  1.042542302
131.5000000;  1.138270857
132.5000000;  1.112414801
133.5000000;  1.168375674
134.5000000;  1.319095851
135.5000000;  1.235752493
136.5000000;  1.174658631
137.5000000;  1.235906635
138.5000000;  1.512872428
139.5000000;  1.499671924
140.5000000;  1.458958200
141.5000000;  1.565278015
142.5000000;  1.640708864
143.5000000;  1.756808725
144.5000000;  2.010670240
145.5000000;  2.227050803
146.5000000;  2.309597945
147.5000000;  2.310987476
148.5000000;  2.686031322
149.5000000;  2.841047265
150.5000000;  3.116385303
151.5000000;  3.327732011
152.5000000;  3.247024681
153.5000000;  3.627016361
154.5000000;  4.280123900
155.5000000;  4.318072675
156.5000000;  4.697421287
157.5000000;  4.935768738
158.5000000;  5.131616448
159.5000000;  5.770600046
160.5000000;  6.072735129
161.5000000;  6.252192563
162.5000000;  7.312593612
163.5000000;  7.491976031
164.5000000;  7.927162936
165.5000000;  8.206490827
166.5000000;  8.633944635
167.5000000;  9.429160190
168.5000000;  9.798429890
169.5000000;  10.46923148
170.5000000;  10.75783618
171.5000000;  11.24272068
172.5000000;  11.16907640
173.5000000;  11.24734324
174.5000000;  11.63565892
175.5000000;  12.43453605
176.5000000;  12.72621608
177.5000000;  12.73371927
178.5000000;  12.21696348
179.5000000;  11.84830352
180.5000000;  12.10098905
181.5000000;  12.14528221
182.5000000;  12.10536358
183.5000000;  11.29832362
184.5000000;  11.01516589
185.5000000;  11.18456352
186.5000000;  11.34438951
187.5000000;  10.90619315
188.5000000;  10.51303677
189.5000000;  10.17356748
190.5000000;  9.362243628
191.5000000;  9.101868364
192.5000000;  8.911153094
193.5000000;  8.814169147
194.5000000;  8.163826362
195.5000000;  7.551942149
196.5000000;  7.466634109
197.5000000;  6.620623908
198.5000000;  6.627615287
199.5000000;  5.798590935
200.5000000;  5.441696050
201.5000000;  5.433683429
202.5000000;  4.985614634
203.5000000;  4.606134749
204.5000000;  4.344896416
205.5000000;  3.986231750
206.5000000;  3.291145594
207.5000000;  3.094986028
208.5000000;  2.783361182
209.5000000;  2.947399440
210.5000000;  2.555142789
211.5000000;  2.317329268
212.5000000;  2.175824972
213.5000000;  2.044581880
214.5000000;  2.077690023
215.5000000;  1.989416052
216.5000000;  1.800653089
217.5000000;  1.638861570
218.5000000;  1.536133028
219.5000000;  1.542169120
220.5000000;  1.413397438
221.5000000;  1.290868111
222.5000000;  1.308756168
223.5000000;  1.242923133
224.5000000;  1.028615250
225.5000000;  1.095903727
226.5000000;  1.176432805
227.5000000;  0.9861980889
228.5000000;  0.9634568896
229.5000000;  0.9918877951
230.5000000;  1.134431367
231.5000000;  1.267882385
232.5000000;  1.147187546
233.5000000;  0.9625651192
234.5000000;  1.122166367
235.5000000;  1.362837708
236.5000000;  1.357229796
237.5000000;  1.360739500
238.5000000;  1.441827135
239.5000000;  1.868122902
240.5000000;  1.643582430
241.5000000;  1.795300561
242.5000000;  2.129023589
243.5000000;  2.422503369
244.5000000;  2.530253060
245.5000000;  3.052883347
246.5000000;  3.018306197
247.5000000;  3.535696254
248.5000000;  4.122147367
249.5000000;  4.618746428
250.5000000;  5.227103285
251.5000000;  6.138010176
252.5000000;  7.276187951
253.5000000;  8.192635210
254.5000000;  9.557628444
255.5000000;  10.55653330
256.5000000;  12.00705699
257.5000000;  15.09312697
258.5000000;  17.26685000
259.5000000;  20.51040789
260.5000000;  24.15147913
261.5000000;  27.84777055
262.5000000;  32.44019101
263.5000000;  39.00008710
264.5000000;  45.93690084
265.5000000;  51.91703138
266.5000000;  60.25229426
267.5000000;  70.86952165
268.5000000;  83.30270105
269.5000000;  96.22846202
270.5000000;  109.8199304
271.5000000;  127.2545697
272.5000000;  146.6521864
273.5000000;  165.4968224
274.5000000;  188.7487987
275.5000000;  212.1914467
276.5000000;  240.1788717
277.5000000;  268.5096396
278.5000000;  297.4543377
279.5000000;  325.2786835
280.5000000;  356.0571820
281.5000000;  387.7215329
282.5000000;  422.0586125
283.5000000;  451.3506233
284.5000000;  482.1427705
285.5000000;  510.4455868
286.5000000;  537.1472661
287.5000000;  559.3654541
288.5000000;  580.9603523
289.5000000;  598.9469360
290.5000000;  610.2201046
291.5000000;  620.3434246
292.5000000;  623.5256069
293.5000000;  624.5413595
294.5000000;  618.5201262
295.5000000;  603.6766005
296.5000000;  589.4047947
297.5000000;  572.0327951
298.5000000;  554.1236397
299.5000000;  526.1435295
300.5000000;  496.3367977
301.5000000;  466.8724147
302.5000000;  438.3180179
303.5000000;  406.9548514
304.5000000;  373.1943959
305.5000000;  339.6574453
306.5000000;  307.0052290
307.5000000;  278.6421359
308.5000000;  249.8836754
309.5000000;  223.5488070
310.5000000;  196.9040193
311.5000000;  172.5930852
312.5000000;  151.0520446
313.5000000;  131.9484875
314.5000000;  114.5826021
315.5000000;  98.50022389
316.5000000;  84.80956708
317.5000000;  72.20280489
318.5000000;  60.98690032
319.5000000;  52.37476305
320.5000000;  43.73076833
321.5000000;  36.82763152
322.5000000;  30.23967387
323.5000000;  24.66144001
324.5000000;  21.57734485
325.5000000;  18.24375622
326.5000000;  14.53258181
327.5000000;  12.07503954
328.5000000;  10.19653845
329.5000000;  8.056714772
330.5000000;  6.886091196
331.5000000;  5.822854269
332.5000000;  4.643737461
333.5000000;  3.859294601
334.5000000;  3.248754168
335.5000000;  2.648995383
336.5000000;  2.246926499
337.5000000;  1.886528263
338.5000000;  1.653049265
339.5000000;  1.188133845
340.5000000;  1.246002084
341.5000000;  1.020363689
342.5000000;  0.8659338642
343.5000000;  0.7394116187
344.5000000;  0.6805349185
345.5000000;  0.6369999781
346.5000000;  0.4534678490
347.5000000;  0.4165632859
348.5000000;  0.3592506306
349.5000000;  0.3704808466
350.5000000;  0.2867424480
351.5000000;  0.2524167130
352.5000000;  0.2773746471
353.5000000;  0.2279917448
354.5000000;  0.2585426790
355.5000000;  0.2117390317
356.5000000;  0.1782900392
357.5000000;  0.2046055508
358.5000000;  0.2329617195
359.5000000;  0.2087356136
