# Dihedral Angle (Degree);  Occurrence
0.5000000000;  0.2254509451
1.500000000;  0.2264590624
2.500000000;  0.1580131238
3.500000000;  0.1627434822
4.500000000;  0.2014903672
5.500000000;  0.1992829140
6.500000000;  0.2172630472
7.500000000;  0.3260332215
8.500000000;  0.2986344564
9.500000000;  0.2614834357
10.50000000;  0.3200049995
11.50000000;  0.3424878752
12.50000000;  0.3977481273
13.50000000;  0.4806168809
14.50000000;  0.6179622563
15.50000000;  0.6336239090
16.50000000;  0.6463944574
17.50000000;  0.8025606349
18.50000000;  0.8531255250
19.50000000;  0.9898621719
20.50000000;  1.329117765
21.50000000;  1.519321649
22.50000000;  1.615913554
23.50000000;  2.119165711
24.50000000;  2.456236676
25.50000000;  3.315534699
26.50000000;  3.825903737
27.50000000;  4.222057176
28.50000000;  5.206189483
29.50000000;  6.423802400
30.50000000;  7.429721014
31.50000000;  9.383944683
32.50000000;  11.23379390
33.50000000;  13.25306380
34.50000000;  16.43754666
35.50000000;  19.74525255
36.50000000;  23.15695688
37.50000000;  27.95590724
38.50000000;  33.05495783
39.50000000;  39.66329967
40.50000000;  47.84228239
41.50000000;  56.30330724
42.50000000;  65.52204720
43.50000000;  75.91160501
44.50000000;  89.01451008
45.50000000;  104.2968019
46.50000000;  119.7667971
47.50000000;  138.2851713
48.50000000;  157.9069897
49.50000000;  178.7804476
50.50000000;  200.7278818
51.50000000;  224.6495542
52.50000000;  252.1893466
53.50000000;  281.6009346
54.50000000;  309.3057118
55.50000000;  337.2129253
56.50000000;  366.1937985
57.50000000;  392.7861759
58.50000000;  423.7551422
59.50000000;  446.8019187
60.50000000;  473.5422333
61.50000000;  497.4481561
62.50000000;  515.5563701
63.50000000;  531.2445341
64.50000000;  544.2932866
65.50000000;  551.8543282
66.50000000;  557.8889796
67.50000000;  563.1205621
68.50000000;  557.1790938
69.50000000;  547.5717428
70.50000000;  536.5727520
71.50000000;  521.4832916
72.50000000;  500.9938610
73.50000000;  479.2784075
74.50000000;  456.1148011
75.50000000;  434.0072050
76.50000000;  406.2322873
77.50000000;  375.6504660
78.50000000;  347.7814556
79.50000000;  320.0083779
80.50000000;  290.7319984
81.50000000;  264.0246323
82.50000000;  238.4000435
83.50000000;  213.4280114
84.50000000;  189.9034992
85.50000000;  170.0351875
86.50000000;  149.2234001
87.50000000;  131.0273805
88.50000000;  114.2555290
89.50000000;  97.92954964
90.50000000;  84.52814600
91.50000000;  73.47408921
92.50000000;  62.70607161
93.50000000;  54.19607650
94.50000000;  46.14712061
95.50000000;  40.24620223
96.50000000;  33.85558358
97.50000000;  29.13562613
98.50000000;  24.79613453
99.50000000;  20.55897937
100.5000000;  17.76268468
101.5000000;  15.35820973
102.5000000;  13.50696288
103.5000000;  11.11889922
104.5000000;  9.543433784
105.5000000;  8.189213582
106.5000000;  6.796907306
107.5000000;  6.346338094
108.5000000;  5.627474417
109.5000000;  4.814607277
110.5000000;  4.372645372
111.5000000;  3.666663466
112.5000000;  3.186955925
113.5000000;  2.665944174
114.5000000;  2.468688136
115.5000000;  2.457970106
116.5000000;  2.394272263
117.5000000;  2.098414717
118.5000000;  1.620205282
119.5000000;  1.552022385
120.5000000;  1.537520074
121.5000000;  1.413725296
122.5000000;  1.375967801
123.5000000;  1.377577869
124.5000000;  1.217360573
125.5000000;  1.184273887
126.5000000;  1.154674575
127.5000000;  1.111652102
128.5000000;  1.023438659
129.5000000;  0.9955343011
130.5000000;  1.091868126
131.5000000;  1.145016135
132.5000000;  1.042769657
133.5000000;  1.110736847
134.5000000;  1.131439008
135.5000000;  1.185862765
136.5000000;  1.345352538
137.5000000;  1.332485029
138.5000000;  1.293226667
139.5000000;  1.449236858
140.5000000;  1.545155823
141.5000000;  1.598068670
142.5000000;  1.605007796
143.5000000;  1.874459234
144.5000000;  1.714474232
145.5000000;  1.858032474
146.5000000;  2.230454610
147.5000000;  2.407717186
148.5000000;  2.542037492
149.5000000;  2.803005987
150.5000000;  2.962318324
151.5000000;  3.116760113
152.5000000;  3.312150234
153.5000000;  3.860786966
154.5000000;  4.048888017
155.5000000;  3.920967193
156.5000000;  4.487557475
157.5000000;  4.793727432
158.5000000;  5.131105257
159.5000000;  5.641095989
160.5000000;  6.254318777
161.5000000;  6.200716066
162.5000000;  6.719585599
163.5000000;  7.018464855
164.5000000;  7.597661740
165.5000000;  7.663990315
166.5000000;  8.418633518
167.5000000;  8.410825638
168.5000000;  8.836807730
169.5000000;  9.167284149
170.5000000;  9.725053492
171.5000000;  9.883089354
172.5000000;  10.33193995
173.5000000;  11.02405528
174.5000000;  11.06889184
175.5000000;  11.04004712
176.5000000;  11.31380776
177.5000000;  11.38395053
178.5000000;  11.85522362
179.5000000;  11.51207223
180.5000000;  11.82598440
181.5000000;  11.75423008
182.5000000;  11.20521788
183.5000000;  11.56516074
184.5000000;  11.03325553
185.5000000;  10.46114053
186.5000000;  10.24194024
187.5000000;  10.01879624
188.5000000;  9.852222868
189.5000000;  9.538765809
190.5000000;  8.834287118
191.5000000;  8.662529788
192.5000000;  8.312433500
193.5000000;  7.875797490
194.5000000;  7.598569883
195.5000000;  7.063329135
196.5000000;  6.476098297
197.5000000;  6.204192808
198.5000000;  5.708026622
199.5000000;  5.260322675
200.5000000;  5.023791194
201.5000000;  5.100470789
202.5000000;  4.804532338
203.5000000;  4.414646320
204.5000000;  4.223194263
205.5000000;  3.748103456
206.5000000;  3.644976154
207.5000000;  3.351174913
208.5000000;  3.264852022
209.5000000;  2.872881278
210.5000000;  2.600306318
211.5000000;  2.407596084
212.5000000;  2.391875371
213.5000000;  2.217541235
214.5000000;  2.108928244
215.5000000;  1.866977462
216.5000000;  1.659438366
217.5000000;  1.641912205
218.5000000;  1.454781520
219.5000000;  1.572311035
220.5000000;  1.356434082
221.5000000;  1.377414174
222.5000000;  1.358100039
223.5000000;  1.421701789
224.5000000;  1.405960491
225.5000000;  1.105735008
226.5000000;  1.158000103
227.5000000;  1.130826519
228.5000000;  1.155889272
229.5000000;  1.196573866
230.5000000;  1.270167419
231.5000000;  1.030141684
232.5000000;  1.154713018
233.5000000;  1.289569965
234.5000000;  1.374919509
235.5000000;  1.283116959
236.5000000;  1.411880994
237.5000000;  1.384334107
238.5000000;  1.583018641
239.5000000;  1.602470305
240.5000000;  1.729208636
241.5000000;  1.873476324
242.5000000;  2.214927027
243.5000000;  2.338074713
244.5000000;  2.594776409
245.5000000;  2.989864929
246.5000000;  3.232051371
247.5000000;  3.351101255
248.5000000;  4.035319619
249.5000000;  4.788676685
250.5000000;  5.529805026
251.5000000;  6.220623463
252.5000000;  7.391516778
253.5000000;  8.617228655
254.5000000;  9.675837611
255.5000000;  11.33809471
256.5000000;  13.60434008
257.5000000;  15.54772554
258.5000000;  18.21222774
259.5000000;  20.90004841
260.5000000;  24.84886316
261.5000000;  28.44468377
262.5000000;  33.20837703
263.5000000;  39.36200062
264.5000000;  45.83279223
265.5000000;  55.03080817
266.5000000;  63.70142792
267.5000000;  73.22939649
268.5000000;  85.31167996
269.5000000;  97.50599061
270.5000000;  112.6967254
271.5000000;  129.1335442
272.5000000;  148.0022028
273.5000000;  170.2671900
274.5000000;  191.1268919
275.5000000;  216.7526092
276.5000000;  240.6433599
277.5000000;  269.7356990
278.5000000;  299.7572047
279.5000000;  331.6477582
280.5000000;  360.9868192
281.5000000;  393.1658686
282.5000000;  425.3275879
283.5000000;  460.7904495
284.5000000;  485.5889790
285.5000000;  513.6161468
286.5000000;  544.9252440
287.5000000;  566.4963391
288.5000000;  589.8914922
289.5000000;  605.5461076
290.5000000;  619.8256852
291.5000000;  625.9800809
292.5000000;  628.3481605
293.5000000;  630.3902961
294.5000000;  624.0901957
295.5000000;  614.0884000
296.5000000;  598.6996826
297.5000000;  577.8816943
298.5000000;  556.5689173
299.5000000;  533.5009595
300.5000000;  505.0495344
301.5000000;  472.0726240
302.5000000;  438.4891322
303.5000000;  406.7625240
304.5000000;  375.9306474
305.5000000;  344.0791038
306.5000000;  312.2635553
307.5000000;  280.3001350
308.5000000;  252.2832026
309.5000000;  222.4506211
310.5000000;  199.5624934
311.5000000;  175.7808946
312.5000000;  153.0431767
313.5000000;  134.6637204
314.5000000;  115.5233193
315.5000000;  97.81525144
316.5000000;  84.59451947
317.5000000;  72.52778398
318.5000000;  62.09518277
319.5000000;  52.44561204
320.5000000;  43.34948711
321.5000000;  36.70308312
322.5000000;  31.09647279
323.5000000;  25.72412878
324.5000000;  21.54560811
325.5000000;  17.72818578
326.5000000;  14.62044929
327.5000000;  11.96203175
328.5000000;  9.963423779
329.5000000;  8.416710867
330.5000000;  7.016062212
331.5000000;  5.660024628
332.5000000;  4.452862320
333.5000000;  3.975735466
334.5000000;  3.295731697
335.5000000;  2.658365788
336.5000000;  2.179999602
337.5000000;  1.999352897
338.5000000;  1.732010302
339.5000000;  1.441395619
340.5000000;  1.114716115
341.5000000;  1.011327087
342.5000000;  0.8506075730
343.5000000;  0.8136972626
344.5000000;  0.6752793671
345.5000000;  0.5457729871
346.5000000;  0.4038097781
347.5000000;  0.3598198334
348.5000000;  0.3342181017
349.5000000;  0.2926731794
350.5000000;  0.3004246690
351.5000000;  0.3055255641
352.5000000;  0.2445802027
353.5000000;  0.1995040512
354.5000000;  0.2647477252
355.5000000;  0.2306554422
356.5000000;  0.1974099282
357.5000000;  0.1962192537
358.5000000;  0.2069339170
359.5000000;  0.2149738425
